File: packages/autoemxsp/autoemxsp-0.1.7.tar.gz/autoemxsp-0.1.7/autoemxsp/XSp_calibs/Microscopes/PhenomXL/Detector_channel_params_calibs/SDD calibrations/20251218_09h26m/Cu/EM_metadata.msa
#FORMAT      : EMSA/MAS Spectral Data File
#VERSION     : 1.0
#TITLE       : EDS Spectrum
#DATE        : 18-DEC-2025
#TIME        : 09:27
#OWNER       : Thermo Fisher Scientific Inc.
#NPOINTS     : 2048.
#NCOLUMNS    : 1.
#XUNITS      : eV
#YUNITS      : Counts
#DATATYPE    : Y
#XPERCHAN    : 9.939
#OFFSET      : -38.660
#XLABEL      : Energy
#YLABEL      : Counts
#SIGNALTYPE  : EDS
#BEAMKV   -kV: 15.000
#AZIMANGLE-dg: 0.0
#ELEVANGLE-dg: 28.5
#LIVETIME  -s: 6.796
#REALTIME  -s: 7.366
#EDSDET      : SDUTW
##MNFWHM  -eV: 126.2
##INSTRUMENT : MVE081392-10796-L
##SLOWTPEAK-s: 0.000004000
##FASTTPEAK-s: 0.000000100
##DETWD   -mm: 10.700
##WD      -mm: 5.225
##SDDAREA    : 0.000025
##DETDIST -mm: 35.060
##SCORR      : RAW
#SPECTRUM    : Spectral Data Starts Here
0.0,
0.0,
8.0,
11.0,
83.0,
34.0,
21.0,
28.0,
95.0,
50.0,
68.0,
81.0,
388.0,
487.0,
2969.0,
81.0,
15.0,
16.0,
22.0,
22.0,
24.0,
28.0,
37.0,
23.0,
33.0,
21.0,
34.0,
26.0,
26.0,
28.0,
26.0,
35.0,
25.0,
40.0,
29.0,
28.0,
23.0,
38.0,
28.0,
31.0,
37.0,
32.0,
25.0,
31.0,
15.0,
37.0,
28.0,
22.0,
34.0,
19.0,
33.0,
19.0,
18.0,
18.0,
22.0,
18.0,
17.0,
21.0,
26.0,
24.0,
16.0,
24.0,
12.0,
20.0,
32.0,
16.0,
20.0,
15.0,
16.0,
18.0,
19.0,
13.0,
17.0,
14.0,
18.0,
12.0,
16.0,
21.0,
13.0,
19.0,
15.0,
12.0,
9.0,
8.0,
10.0,
14.0,
20.0,
20.0,
9.0,
9.0,
12.0,
14.0,
12.0,
8.0,
18.0,
12.0,
16.0,
10.0,
8.0,
13.0,
11.0,
13.0,
9.0,
16.0,
7.0,
8.0,
10.0,
9.0,
10.0,
10.0,
8.0,
8.0,
9.0,
10.0,
28.0,
137.0,
331.0,
209.0,
34.0,
10.0,
7.0,
14.0,
8.0,
4.0,
9.0,
5.0,
13.0,
27.0,
56.0,
42.0,
12.0,
8.0,
2.0,
5.0,
2.0,
2.0,
5.0,
6.0,
11.0,
6.0,
3.0,
5.0,
5.0,
3.0,
8.0,
3.0,
5.0,
4.0,
2.0,
3.0,
5.0,
4.0,
2.0,
3.0,
2.0,
2.0,
6.0,
2.0,
5.0,
1.0,
5.0,
5.0,
3.0,
3.0,
2.0,
2.0,
1.0,
4.0,
1.0,
2.0,
3.0,
1.0,
1.0,
3.0,
2.0,
5.0,
2.0,
2.0,
4.0,
1.0,
3.0,
1.0,
0.0,
0.0,
2.0,
1.0,
1.0,
0.0,
3.0,
1.0,
0.0,
0.0,
1.0,
0.0,
3.0,
1.0,
0.0,
1.0,
1.0,
2.0,
0.0,
0.0,
0.0,
1.0,
2.0,
0.0,
1.0,
1.0,
0.0,
0.0,
1.0,
0.0,
0.0,
0.0,
0.0,
0.0,
0.0,
0.0,
0.0,
0.0,
0.0,
0.0,
0.0,
0.0,
0.0,
0.0,
0.0,
0.0,
0.0,
0.0,
0.0,
0.0,
0.0,
0.0,
0.0,
0.0,
0.0,
0.0,
0.0,
0.0,
0.0,
0.0,
0.0,
0.0,
0.0,
0.0,
0.0,
0.0,
0.0,
0.0,
0.0,
0.0,
0.0,
0.0,
0.0,
0.0,
0.0,
0.0,
0.0,
0.0,
0.0,
0.0,
0.0,
0.0,
0.0,
0.0,
0.0,
0.0,
0.0,
0.0,
0.0,
0.0,
0.0,
0.0,
0.0,
0.0,
0.0,
0.0,
0.0,
0.0,
0.0,
0.0,
0.0,
0.0,
0.0,
0.0,
0.0,
0.0,
0.0,
0.0,
0.0,
0.0,
0.0,
0.0,
#ENDOFDATA   :