File: packages/autoemxsp/autoemxsp-0.1.7.tar.gz/autoemxsp-0.1.7/autoemxsp/scripts/input/Example_spectrum.msa
#FORMAT      : EMSA/MAS Spectral Data File
#VERSION     : 1.0
#TITLE       : EDS Spectrum
#DATE        : 04-DEC-2025
#TIME        : 12:00
#OWNER       : Thermo Fisher Scientific Inc.
#NPOINTS     : 2048.
#NCOLUMNS    : 1.
#XUNITS      : eV
#YUNITS      : Counts
#DATATYPE    : Y
#XPERCHAN    : 9.951
#OFFSET      : -40.491
#XLABEL      : Energy
#YLABEL      : Counts
#SIGNALTYPE  : EDS
#BEAMKV   -kV: 15.000
#AZIMANGLE-dg: 0.0
#ELEVANGLE-dg: 28.5
#LIVETIME  -s: 9.412
#REALTIME  -s: 9.926
#EDSDET      : SDUTW
##MNFWHM  -eV: 126.3
##INSTRUMENT : MVE081392-10796-L
##SLOWTPEAK-s: 0.000004000
##FASTTPEAK-s: 0.000000100
##DETWD   -mm: 10.700
##WD      -mm: 5.063
##SDDAREA    : 0.000025
##DETDIST -mm: 35.060
##SCORR      : RAW
#SPECTRUM    : Spectral Data Starts Here
0.0,
0.0,
30.0,
40.0,
101.0,
67.0,
59.0,
84.0,
722.0,
89.0,
124.0,
210.0,
53.0,
52.0,
41.0,
58.0,
45.0,
53.0,
58.0,
50.0,
47.0,
50.0,
94.0,
43.0,
49.0,
54.0,
65.0,
66.0,
74.0,
52.0,
38.0,
44.0,
41.0,
47.0,
88.0,
709.0,
519.0,
471.0,
78.0,
51.0,
67.0,
36.0,
30.0,
26.0,
35.0,
33.0,
50.0,
34.0,
34.0,
27.0,
26.0,
24.0,
35.0,
25.0,
16.0,
22.0,
24.0,
24.0,
23.0,
13.0,
21.0,
25.0,
39.0,
28.0,
39.0,
24.0,
24.0,
18.0,
22.0,
22.0,
19.0,
24.0,
20.0,
16.0,
18.0,
15.0,
19.0,
23.0,
20.0,
29.0,
26.0,
20.0,
24.0,
25.0,
23.0,
22.0,
21.0,
23.0,
30.0,
13.0,
17.0,
77.0,
197.0,
179.0,
36.0,
20.0,
19.0,
17.0,
12.0,
12.0,
24.0,
32.0,
33.0,
20.0,
16.0,
14.0,
25.0,
5.0,
14.0,
10.0,
7.0,
14.0,
11.0,
12.0,
17.0,
14.0,
11.0,
13.0,
20.0,
16.0,
7.0,
9.0,
8.0,
15.0,
13.0,
9.0,
9.0,
13.0,
13.0,
6.0,
13.0,
14.0,
12.0,
11.0,
11.0,
11.0,
9.0,
14.0,
10.0,
9.0,
6.0,
7.0,
10.0,
3.0,
7.0,
8.0,
5.0,
12.0,
9.0,
6.0,
9.0,
8.0,
6.0,
10.0,
11.0,
10.0,
11.0,
14.0,
13.0,
6.0,
6.0,
6.0,
3.0,
4.0,
9.0,
10.0,
8.0,
10.0,
8.0,
11.0,
2.0,
4.0,
4.0,
4.0,
4.0,
1.0,
0.0,
3.0,
2.0,
2.0,
3.0,
5.0,
2.0,
4.0,
6.0,
3.0,
7.0,
2.0,
5.0,
2.0,
6.0,
2.0,
4.0,
2.0,
2.0,
3.0,
7.0,
1.0,
6.0,
0.0,
1.0,
0.0,
1.0,
1.0,
1.0,
2.0,
2.0,
0.0,
0.0,
1.0,
1.0,
0.0,
0.0,
0.0,
0.0,
0.0,
0.0,
0.0,
0.0,
0.0,
0.0,
1.0,
0.0,
0.0,
0.0,
0.0,
0.0,
0.0,
0.0,
0.0,
0.0,
0.0,
0.0,
0.0,
0.0,
0.0,
0.0,
0.0,
0.0,
0.0,
0.0,
0.0,
0.0,
0.0,
0.0,
0.0,
0.0,
0.0,
0.0,
0.0,
0.0,
0.0,
0.0,
0.0,
0.0,
0.0,
0.0,
0.0,
0.0,
0.0,
0.0,
0.0,
0.0,
0.0,
0.0,
0.0,
0.0,
0.0,
0.0,
0.0,
0.0,
0.0,
0.0,
0.0,
0.0,
0.0,
0.0,
0.0,
0.0,
0.0,
0.0,
0.0,
0.0,
0.0,
0.0,
0.0,
0.0,
0.0,
0.0,
0.0,
0.0,
0.0,
0.0,
0.0,
#ENDOFDATA   :